|6.6.6
primRef_quadrant3_1.tab                                                                             
           2
T(K)    
   300.00000000000000     
   31.623076923076923     
          40
P(bar)  
   466667.00000000000     
   11965.820512820514     
          40
           6
T(K)           P(bar)         mode           rho,kg/m3      Ks,bar         Gs,bar        
  300.000        466667.      -0.104694E+011   4962.27       0.438188E+007  0.227135E+007
  331.623        466667.      -0.103583E+011   4960.60       0.437870E+007  0.226755E+007
  363.246        466667.      -0.102374E+011   4958.78       0.437524E+007  0.226341E+007
  394.869        466667.      -0.101079E+011   4956.83       0.437152E+007  0.225897E+007
  426.492        466667.      -0.997136E+010   4954.77       0.436760E+007  0.225429E+007
  458.115        466667.      -0.982868E+010   4952.62       0.436350E+007  0.224940E+007
  489.738        466667.      -0.968080E+010   4950.38       0.435925E+007  0.224432E+007
  521.362        466667.      -0.952847E+010   4948.08       0.435487E+007  0.223909E+007
  552.985        466667.      -0.937231E+010   4945.71       0.435037E+007  0.223372E+007
  584.608        466667.      -0.921283E+010   4943.29       0.434577E+007  0.222824E+007
  616.231        466667.      -0.905048E+010   4940.82       0.434109E+007  0.222264E+007
  647.854        466667.      -0.888562E+010   4938.31       0.433633E+007  0.221696E+007
  679.477        466667.      -0.871855E+010   4935.77       0.433150E+007  0.221119E+007
  711.100        466667.      -0.854956E+010   4933.18       0.432661E+007  0.220535E+007
  742.723        466667.      -0.837885E+010   4930.57       0.432166E+007  0.219944E+007
  774.346        466667.      -0.820662E+010   4927.94       0.431667E+007  0.219348E+007
  805.969        466667.      -0.803305E+010   4925.27       0.431164E+007  0.218746E+007
  837.592        466667.      -0.785828E+010   4922.59       0.430656E+007  0.218139E+007
  869.215        466667.      -0.768243E+010   4919.88       0.430145E+007  0.217528E+007
  900.838        466667.      -0.750561E+010   4917.16       0.429630E+007  0.216912E+007
  932.462        466667.      -0.732792E+010   4914.41       0.429113E+007  0.216293E+007
  964.085        466667.      -0.714944E+010   4911.65       0.428593E+007  0.215670E+007
  995.708        466667.      -0.697026E+010   4908.88       0.428070E+007  0.215044E+007
  1027.33        466667.      -0.679042E+010   4906.09       0.427544E+007  0.214415E+007
  1058.95        466667.      -0.661001E+010   4903.28       0.427017E+007  0.213783E+007
  1090.58        466667.      -0.642906E+010   4900.47       0.426487E+007  0.213148E+007
  1122.20        466667.      -0.624763E+010   4897.64       0.425955E+007  0.212511E+007
  1153.82        466667.      -0.606575E+010   4894.80       0.425422E+007  0.211871E+007
  1185.45        466667.      -0.588346E+010   4891.94       0.424886E+007  0.211230E+007
  1217.07        466667.      -0.570081E+010   4889.08       0.424349E+007  0.210586E+007
  1248.69        466667.      -0.551781E+010   4886.21       0.423811E+007  0.209939E+007
  1280.32        466667.      -0.533451E+010   4883.32       0.423271E+007  0.209291E+007
  1311.94        466667.      -0.515091E+010   4880.43       0.422729E+007  0.208641E+007
  1343.56        466667.      -0.496705E+010   4877.53       0.422187E+007  0.207990E+007
  1375.18        466667.      -0.478295E+010   4874.62       0.421643E+007  0.207336E+007
  1406.81        466667.      -0.459862E+010   4871.70       0.421097E+007  0.206681E+007
  1438.43        466667.      -0.441409E+010   4868.77       0.420551E+007  0.206024E+007
  1470.05        466667.      -0.422937E+010   4865.83       0.420003E+007  0.205365E+007
  1501.68        466667.      -0.404447E+010   4862.88       0.419454E+007  0.204705E+007
  1533.30        466667.      -0.385942E+010   4859.93       0.418904E+007  0.204043E+007
  300.000        478633.      -0.930337E+010   4975.82       0.442610E+007  0.228556E+007
  331.623        478633.      -0.919287E+010   4974.17       0.442294E+007  0.228179E+007
  363.246        478633.      -0.907241E+010   4972.37       0.441950E+007  0.227767E+007
  394.869        478633.      -0.894350E+010   4970.44       0.441581E+007  0.227327E+007
  426.492        478633.      -0.880740E+010   4968.40       0.441191E+007  0.226862E+007
  458.115        478633.      -0.866519E+010   4966.27       0.440783E+007  0.226375E+007
  489.738        478633.      -0.851777E+010   4964.05       0.440360E+007  0.225871E+007
  521.362        478633.      -0.836588E+010   4961.77       0.439924E+007  0.225350E+007
  552.985        478633.      -0.821014E+010   4959.42       0.439476E+007  0.224816E+007
  584.608        478633.      -0.805108E+010   4957.02       0.439018E+007  0.224270E+007
  616.231        478633.      -0.788913E+010   4954.57       0.438552E+007  0.223714E+007
  647.854        478633.      -0.772465E+010   4952.08       0.438078E+007  0.223148E+007
  679.477        478633.      -0.755797E+010   4949.56       0.437597E+007  0.222574E+007
  711.100        478633.      -0.738934E+010   4947.00       0.437110E+007  0.221993E+007
  742.723        478633.      -0.721900E+010   4944.41       0.436618E+007  0.221405E+007
  774.346        478633.      -0.704713E+010   4941.79       0.436121E+007  0.220811E+007
  805.969        478633.      -0.687391E+010   4939.15       0.435619E+007  0.220212E+007
  837.592        478633.      -0.669949E+010   4936.49       0.435114E+007  0.219608E+007
  869.215        478633.      -0.652398E+010   4933.80       0.434605E+007  0.219000E+007
  900.838        478633.      -0.634749E+010   4931.10       0.434092E+007  0.218387E+007
  932.462        478633.      -0.617014E+010   4928.38       0.433577E+007  0.217770E+007
  964.085        478633.      -0.599199E+010   4925.64       0.433058E+007  0.217151E+007
  995.708        478633.      -0.581313E+010   4922.88       0.432537E+007  0.216527E+007
  1027.33        478633.      -0.563363E+010   4920.12       0.432014E+007  0.215901E+007
  1058.95        478633.      -0.545354E+010   4917.33       0.431489E+007  0.215272E+007
  1090.58        478633.      -0.527291E+010   4914.54       0.430961E+007  0.214640E+007
  1122.20        478633.      -0.509179E+010   4911.73       0.430431E+007  0.214006E+007
  1153.82        478633.      -0.491023E+010   4908.91       0.429900E+007  0.213369E+007
  1185.45        478633.      -0.472826E+010   4906.08       0.429367E+007  0.212730E+007
  1217.07        478633.      -0.454592E+010   4903.24       0.428832E+007  0.212089E+007
  1248.69        478633.      -0.436324E+010   4900.39       0.428296E+007  0.211446E+007
  1280.32        478633.      -0.418025E+010   4897.53       0.427758E+007  0.210801E+007
  1311.94        478633.      -0.399697E+010   4894.66       0.427218E+007  0.210154E+007
  1343.56        478633.      -0.381342E+010   4891.78       0.426678E+007  0.209505E+007
  1375.18        478633.      -0.362963E+010   4888.89       0.426136E+007  0.208854E+007
  1406.81        478633.      -0.344562E+010   4886.00       0.425593E+007  0.208202E+007
  1438.43        478633.      -0.326140E+010   4883.09       0.425048E+007  0.207548E+007
  1470.05        478633.      -0.307699E+010   4880.18       0.424503E+007  0.206893E+007
  1501.68        478633.      -0.289240E+010   4877.25       0.423957E+007  0.206235E+007
  1533.30        478633.      -0.270766E+010   4874.33       0.423408E+007  0.205577E+007
  300.000        490599.      -0.813389E+010   4989.28       0.447025E+007  0.229969E+007
  331.623        490599.      -0.802392E+010   4987.65       0.446711E+007  0.229594E+007
  363.246        490599.      -0.790397E+010   4985.86       0.446368E+007  0.229186E+007
  394.869        490599.      -0.777555E+010   4983.95       0.446001E+007  0.228748E+007
  426.492        490599.      -0.763993E+010   4981.93       0.445613E+007  0.228286E+007
  458.115        490599.      -0.749819E+010   4979.82       0.445208E+007  0.227802E+007
  489.738        490599.      -0.735121E+010   4977.62       0.444787E+007  0.227300E+007
  521.362        490599.      -0.719975E+010   4975.35       0.444353E+007  0.226783E+007
  552.985        490599.      -0.704443E+010   4973.03       0.443907E+007  0.226251E+007
  584.608        490599.      -0.688576E+010   4970.65       0.443451E+007  0.225708E+007
  616.231        490599.      -0.672420E+010   4968.22       0.442987E+007  0.225154E+007
  647.854        490599.      -0.656011E+010   4965.75       0.442515E+007  0.224591E+007
  679.477        490599.      -0.639380E+010   4963.25       0.442036E+007  0.224020E+007
  711.100        490599.      -0.622553E+010   4960.71       0.441551E+007  0.223442E+007
  742.723        490599.      -0.605554E+010   4958.14       0.441061E+007  0.222857E+007
  774.346        490599.      -0.588403E+010   4955.54       0.440566E+007  0.222266E+007
  805.969        490599.      -0.571115E+010   4952.92       0.440066E+007  0.221669E+007
  837.592        490599.      -0.553706E+010   4950.28       0.439563E+007  0.221068E+007
  869.215        490599.      -0.536188E+010   4947.61       0.439056E+007  0.220462E+007
  900.838        490599.      -0.518572E+010   4944.93       0.438545E+007  0.219852E+007
  932.462        490599.      -0.500869E+010   4942.23       0.438032E+007  0.219239E+007
  964.085        490599.      -0.483087E+010   4939.51       0.437516E+007  0.218622E+007
  995.708        490599.      -0.465233E+010   4936.78       0.436997E+007  0.218001E+007
  1027.33        490599.      -0.447314E+010   4934.03       0.436475E+007  0.217378E+007
  1058.95        490599.      -0.429336E+010   4931.27       0.435952E+007  0.216751E+007
  1090.58        490599.      -0.411304E+010   4928.50       0.435426E+007  0.216123E+007
  1122.20        490599.      -0.393223E+010   4925.71       0.434899E+007  0.215491E+007
  1153.82        490599.      -0.375098E+010   4922.92       0.434369E+007  0.214857E+007
  1185.45        490599.      -0.356932E+010   4920.11       0.433838E+007  0.214221E+007
  1217.07        490599.      -0.338728E+010   4917.29       0.433306E+007  0.213583E+007
  1248.69        490599.      -0.320490E+010   4914.46       0.432771E+007  0.212942E+007
  1280.32        490599.      -0.302221E+010   4911.62       0.432235E+007  0.212300E+007
  1311.94        490599.      -0.283923E+010   4908.78       0.431698E+007  0.211656E+007
  1343.56        490599.      -0.265599E+010   4905.92       0.431160E+007  0.211010E+007
  1375.18        490599.      -0.247250E+010   4903.05       0.430620E+007  0.210362E+007
  1406.81        490599.      -0.228879E+010   4900.18       0.430079E+007  0.209713E+007
  1438.43        490599.      -0.210487E+010   4897.30       0.429537E+007  0.209062E+007
  1470.05        490599.      -0.192076E+010   4894.41       0.428993E+007  0.208410E+007
  1501.68        490599.      -0.173647E+010   4891.51       0.428449E+007  0.207755E+007
  1533.30        490599.      -0.155203E+010   4888.60       0.427903E+007  0.207100E+007
  300.000        502564.      -0.696100E+010   5002.64       0.451431E+007  0.231373E+007
  331.623        502564.      -0.685154E+010   5001.03       0.451120E+007  0.231002E+007
  363.246        502564.      -0.673210E+010   4999.26       0.450779E+007  0.230596E+007
  394.869        502564.      -0.660417E+010   4997.37       0.450414E+007  0.230161E+007
  426.492        502564.      -0.646902E+010   4995.36       0.450028E+007  0.229701E+007
  458.115        502564.      -0.632772E+010   4993.27       0.449625E+007  0.229220E+007
  489.738        502564.      -0.618118E+010   4991.09       0.449206E+007  0.228721E+007
  521.362        502564.      -0.603014E+010   4988.84       0.448774E+007  0.228206E+007
  552.985        502564.      -0.587522E+010   4986.53       0.448330E+007  0.227678E+007
  584.608        502564.      -0.571695E+010   4984.17       0.447877E+007  0.227137E+007
  616.231        502564.      -0.555577E+010   4981.77       0.447414E+007  0.226586E+007
  647.854        502564.      -0.539205E+010   4979.32       0.446944E+007  0.226026E+007
  679.477        502564.      -0.522610E+010   4976.83       0.446467E+007  0.225458E+007
  711.100        502564.      -0.505819E+010   4974.31       0.445984E+007  0.224882E+007
  742.723        502564.      -0.488855E+010   4971.76       0.445496E+007  0.224299E+007
  774.346        502564.      -0.471737E+010   4969.19       0.445003E+007  0.223711E+007
  805.969        502564.      -0.454482E+010   4966.59       0.444505E+007  0.223118E+007
  837.592        502564.      -0.437106E+010   4963.96       0.444004E+007  0.222519E+007
  869.215        502564.      -0.419620E+010   4961.32       0.443499E+007  0.221916E+007
  900.838        502564.      -0.402037E+010   4958.66       0.442990E+007  0.221309E+007
  932.462        502564.      -0.384365E+010   4955.98       0.442479E+007  0.220698E+007
  964.085        502564.      -0.366614E+010   4953.28       0.441964E+007  0.220083E+007
  995.708        502564.      -0.348790E+010   4950.57       0.441448E+007  0.219466E+007
  1027.33        502564.      -0.330902E+010   4947.85       0.440928E+007  0.218845E+007
  1058.95        502564.      -0.312954E+010   4945.11       0.440407E+007  0.218222E+007
  1090.58        502564.      -0.294952E+010   4942.35       0.439883E+007  0.217595E+007
  1122.20        502564.      -0.276902E+010   4939.59       0.439358E+007  0.216967E+007
  1153.82        502564.      -0.258806E+010   4936.81       0.438830E+007  0.216336E+007
  1185.45        502564.      -0.240669E+010   4934.03       0.438301E+007  0.215702E+007
  1217.07        502564.      -0.222495E+010   4931.23       0.437770E+007  0.215067E+007
  1248.69        502564.      -0.204287E+010   4928.42       0.437238E+007  0.214429E+007
  1280.32        502564.      -0.186047E+010   4925.61       0.436704E+007  0.213790E+007
  1311.94        502564.      -0.167778E+010   4922.78       0.436169E+007  0.213148E+007
  1343.56        502564.      -0.149483E+010   4919.95       0.435633E+007  0.212505E+007
  1375.18        502564.      -0.131163E+010   4917.10       0.435095E+007  0.211861E+007
  1406.81        502564.      -0.112821E+010   4914.25       0.434556E+007  0.211214E+007
  1438.43        502564.      -0.944582E+009   4911.39       0.434016E+007  0.210566E+007
  1470.05        502564.      -0.760763E+009   4908.52       0.433474E+007  0.209916E+007
  1501.68        502564.      -0.576769E+009   4905.65       0.432932E+007  0.209265E+007
  1533.30        502564.      -0.392613E+009   4902.76       0.432388E+007  0.208613E+007
  300.000        514530.      -0.578476E+010   5015.91       0.455831E+007  0.232770E+007
  331.623        514530.      -0.567580E+010   5014.31       0.455521E+007  0.232401E+007
  363.246        514530.      -0.555685E+010   5012.56       0.455182E+007  0.231998E+007
  394.869        514530.      -0.542940E+010   5010.68       0.454820E+007  0.231565E+007
  426.492        514530.      -0.529471E+010   5008.70       0.454436E+007  0.231108E+007
  458.115        514530.      -0.515386E+010   5006.62       0.454034E+007  0.230630E+007
  489.738        514530.      -0.500774E+010   5004.46       0.453617E+007  0.230134E+007
  521.362        514530.      -0.485711E+010   5002.23       0.453187E+007  0.229622E+007
  552.985        514530.      -0.470259E+010   4999.94       0.452745E+007  0.229096E+007
  584.608        514530.      -0.454471E+010   4997.60       0.452294E+007  0.228558E+007
  616.231        514530.      -0.438390E+010   4995.21       0.451834E+007  0.228010E+007
  647.854        514530.      -0.422054E+010   4992.78       0.451365E+007  0.227452E+007
  679.477        514530.      -0.405494E+010   4990.32       0.450891E+007  0.226886E+007
  711.100        514530.      -0.388738E+010   4987.82       0.450410E+007  0.226313E+007
  742.723        514530.      -0.371807E+010   4985.29       0.449923E+007  0.225734E+007
  774.346        514530.      -0.354722E+010   4982.73       0.449432E+007  0.225148E+007
  805.969        514530.      -0.337500E+010   4980.15       0.448936E+007  0.224557E+007
  837.592        514530.      -0.320155E+010   4977.55       0.448437E+007  0.223961E+007
  869.215        514530.      -0.302701E+010   4974.93       0.447933E+007  0.223361E+007
  900.838        514530.      -0.285149E+010   4972.28       0.447427E+007  0.222756E+007
  932.462        514530.      -0.267507E+010   4969.62       0.446917E+007  0.222148E+007
  964.085        514530.      -0.249786E+010   4966.95       0.446405E+007  0.221536E+007
  995.708        514530.      -0.231993E+010   4964.26       0.445890E+007  0.220921E+007
  1027.33        514530.      -0.214134E+010   4961.55       0.445373E+007  0.220303E+007
  1058.95        514530.      -0.196215E+010   4958.83       0.444853E+007  0.219682E+007
  1090.58        514530.      -0.178243E+010   4956.10       0.444331E+007  0.219059E+007
  1122.20        514530.      -0.160221E+010   4953.36       0.443808E+007  0.218433E+007
  1153.82        514530.      -0.142154E+010   4950.60       0.443282E+007  0.217805E+007
  1185.45        514530.      -0.124046E+010   4947.84       0.442755E+007  0.217174E+007
  1217.07        514530.      -0.105901E+010   4945.06       0.442226E+007  0.216541E+007
  1248.69        514530.      -0.877208E+009   4942.28       0.441696E+007  0.215906E+007
  1280.32        514530.      -0.695092E+009   4939.48       0.441164E+007  0.215270E+007
  1311.94        514530.      -0.512687E+009   4936.68       0.440631E+007  0.214631E+007
  1343.56        514530.      -0.330015E+009   4933.86       0.440097E+007  0.213991E+007
  1375.18        514530.      -0.147099E+009   4931.04       0.439561E+007  0.213349E+007
  1406.81        514530.       0.360428E+008   4928.21       0.439024E+007  0.212705E+007
  1438.43        514530.       0.219391E+009   4925.37       0.438486E+007  0.212060E+007
  1470.05        514530.       0.402930E+009   4922.53       0.437946E+007  0.211413E+007
  1501.68        514530.       0.586645E+009   4919.67       0.437406E+007  0.210765E+007
  1533.30        514530.       0.770520E+009   4916.81       0.436865E+007  0.210115E+007
  300.000        526496.      -0.460522E+010   5029.08       0.460223E+007  0.234159E+007
  331.623        526496.      -0.449676E+010   5027.50       0.459915E+007  0.233792E+007
  363.246        526496.      -0.437829E+010   5025.76       0.459578E+007  0.233391E+007
  394.869        526496.      -0.425131E+010   5023.91       0.459218E+007  0.232962E+007
  426.492        526496.      -0.411707E+010   5021.94       0.458836E+007  0.232508E+007
  458.115        526496.      -0.397665E+010   5019.88       0.458436E+007  0.232032E+007
  489.738        526496.      -0.383096E+010   5017.74       0.458021E+007  0.231538E+007
  521.362        526496.      -0.368073E+010   5015.53       0.457593E+007  0.231029E+007
  552.985        526496.      -0.352660E+010   5013.26       0.457153E+007  0.230506E+007
  584.608        526496.      -0.336909E+010   5010.93       0.456704E+007  0.229970E+007
  616.231        526496.      -0.320865E+010   5008.56       0.456245E+007  0.229425E+007
  647.854        526496.      -0.304564E+010   5006.15       0.455779E+007  0.228870E+007
  679.477        526496.      -0.288038E+010   5003.71       0.455306E+007  0.228307E+007
  711.100        526496.      -0.271315E+010   5001.23       0.454827E+007  0.227736E+007
  742.723        526496.      -0.254417E+010   4998.72       0.454342E+007  0.227159E+007
  774.346        526496.      -0.237365E+010   4996.18       0.453853E+007  0.226576E+007
  805.969        526496.      -0.220174E+010   4993.62       0.453359E+007  0.225988E+007
  837.592        526496.      -0.202860E+010   4991.03       0.452862E+007  0.225394E+007
