|6.6.6
primRef_quadrant2_1.tab                                                                             
           2
T(K)    
   300.00000000000000     
   47.435897435897438     
          40
P(bar)  
   700000.00000000000     
   17948.717948717949     
          40
           6
T(K)           P(bar)         mode           rho,kg/m3      Ks,bar         Gs,bar        
  300.000        700000.       0.128376E+011   5210.56       0.523161E+007  0.253465E+007
  347.436        700000.       0.129947E+011   5208.43       0.522726E+007  0.252952E+007
  394.872        700000.       0.131731E+011   5206.01       0.522231E+007  0.252369E+007
  442.308        700000.       0.133683E+011   5203.36       0.521689E+007  0.251731E+007
  489.744        700000.       0.135770E+011   5200.51       0.521110E+007  0.251048E+007
  537.179        700000.       0.137964E+011   5197.52       0.520500E+007  0.250330E+007
  584.615        700000.       0.140243E+011   5194.41       0.519866E+007  0.249582E+007
  632.051        700000.       0.142593E+011   5191.19       0.519211E+007  0.248810E+007
  679.487        700000.       0.145001E+011   5187.89       0.518540E+007  0.248019E+007
  726.923        700000.       0.147455E+011   5184.51       0.517854E+007  0.247211E+007
  774.359        700000.       0.149949E+011   5181.08       0.517157E+007  0.246389E+007
  821.795        700000.       0.152477E+011   5177.60       0.516450E+007  0.245554E+007
  869.231        700000.       0.155032E+011   5174.06       0.515734E+007  0.244709E+007
  916.667        700000.       0.157611E+011   5170.49       0.515011E+007  0.243855E+007
  964.103        700000.       0.160210E+011   5166.88       0.514281E+007  0.242993E+007
  1011.54        700000.       0.162827E+011   5163.25       0.513545E+007  0.242124E+007
  1058.97        700000.       0.165458E+011   5159.58       0.512805E+007  0.241248E+007
  1106.41        700000.       0.168103E+011   5155.89       0.512059E+007  0.240366E+007
  1153.85        700000.       0.170759E+011   5152.17       0.511310E+007  0.239479E+007
  1201.28        700000.       0.173425E+011   5148.43       0.510556E+007  0.238588E+007
  1248.72        700000.       0.176100E+011   5144.67       0.509800E+007  0.237692E+007
  1296.15        700000.       0.178782E+011   5140.89       0.509040E+007  0.236791E+007
  1343.59        700000.       0.181471E+011   5137.10       0.508277E+007  0.235888E+007
  1391.03        700000.       0.184166E+011   5133.29       0.507512E+007  0.234980E+007
  1438.46        700000.       0.186866E+011   5129.46       0.506744E+007  0.234069E+007
  1485.90        700000.       0.189570E+011   5125.62       0.505974E+007  0.233155E+007
  1533.33        700000.       0.192279E+011   5121.76       0.505202E+007  0.232238E+007
  1580.77        700000.       0.194990E+011   5117.89       0.504428E+007  0.231318E+007
  1628.21        700000.       0.197705E+011   5114.01       0.503652E+007  0.230396E+007
  1675.64        700000.       0.200423E+011   5110.11       0.502874E+007  0.229471E+007
  1723.08        700000.       0.203142E+011   5106.20       0.502094E+007  0.228543E+007
  1770.51        700000.       0.205864E+011   5102.28       0.501313E+007  0.227613E+007
  1817.95        700000.       0.208588E+011   5098.35       0.500530E+007  0.226681E+007
  1865.38        700000.       0.211313E+011   5094.41       0.499746E+007  0.225747E+007
  1912.82        700000.       0.214039E+011   5090.45       0.498960E+007  0.224810E+007
  1960.26        700000.       0.216767E+011   5086.49       0.498173E+007  0.223871E+007
  2007.69        700000.       0.219495E+011   5082.51       0.497384E+007  0.222930E+007
  2055.13        700000.       0.222224E+011   5078.53       0.496594E+007  0.221987E+007
  2102.56        700000.       0.224953E+011   5074.53       0.495803E+007  0.221042E+007
  2150.00        700000.       0.227683E+011   5070.53       0.495005E+007  0.220096E+007
  300.000        717949.       0.146753E+011   5228.42       0.529599E+007  0.255381E+007
  347.436        717949.       0.148315E+011   5226.31       0.529167E+007  0.254872E+007
  394.872        717949.       0.150091E+011   5223.92       0.528676E+007  0.254294E+007
  442.308        717949.       0.152035E+011   5221.29       0.528138E+007  0.253660E+007
  489.744        717949.       0.154115E+011   5218.48       0.527562E+007  0.252982E+007
  537.179        717949.       0.156302E+011   5215.52       0.526955E+007  0.252268E+007
  584.615        717949.       0.158576E+011   5212.44       0.526324E+007  0.251525E+007
  632.051        717949.       0.160920E+011   5209.25       0.525673E+007  0.250759E+007
  679.487        717949.       0.163322E+011   5205.98       0.525005E+007  0.249972E+007
  726.923        717949.       0.165771E+011   5202.64       0.524322E+007  0.249168E+007
  774.359        717949.       0.168260E+011   5199.24       0.523628E+007  0.248351E+007
  821.795        717949.       0.170783E+011   5195.79       0.522924E+007  0.247521E+007
  869.231        717949.       0.173333E+011   5192.29       0.522212E+007  0.246680E+007
  916.667        717949.       0.175908E+011   5188.75       0.521491E+007  0.245831E+007
  964.103        717949.       0.178503E+011   5185.17       0.520765E+007  0.244973E+007
  1011.54        717949.       0.181115E+011   5181.57       0.520032E+007  0.244108E+007
  1058.97        717949.       0.183743E+011   5177.93       0.519294E+007  0.243237E+007
  1106.41        717949.       0.186384E+011   5174.27       0.518552E+007  0.242360E+007
  1153.85        717949.       0.189036E+011   5170.59       0.517805E+007  0.241478E+007
  1201.28        717949.       0.191698E+011   5166.89       0.517055E+007  0.240591E+007
  1248.72        717949.       0.194369E+011   5163.16       0.516302E+007  0.239699E+007
  1296.15        717949.       0.197048E+011   5159.42       0.515545E+007  0.238804E+007
  1343.59        717949.       0.199733E+011   5155.66       0.514785E+007  0.237904E+007
  1391.03        717949.       0.202424E+011   5151.88       0.514023E+007  0.237002E+007
  1438.46        717949.       0.205121E+011   5148.09       0.513259E+007  0.236096E+007
  1485.90        717949.       0.207821E+011   5144.28       0.512492E+007  0.235186E+007
  1533.33        717949.       0.210526E+011   5140.46       0.511723E+007  0.234274E+007
  1580.77        717949.       0.213235E+011   5136.62       0.510952E+007  0.233359E+007
  1628.21        717949.       0.215946E+011   5132.78       0.510179E+007  0.232441E+007
  1675.64        717949.       0.218660E+011   5128.92       0.509404E+007  0.231521E+007
  1723.08        717949.       0.221376E+011   5125.04       0.508628E+007  0.230599E+007
  1770.51        717949.       0.224095E+011   5121.16       0.507850E+007  0.229673E+007
  1817.95        717949.       0.226815E+011   5117.26       0.507070E+007  0.228746E+007
  1865.38        717949.       0.229536E+011   5113.36       0.506289E+007  0.227817E+007
  1912.82        717949.       0.232259E+011   5109.44       0.505507E+007  0.226885E+007
  1960.26        717949.       0.234983E+011   5105.51       0.504723E+007  0.225951E+007
  2007.69        717949.       0.237708E+011   5101.58       0.503937E+007  0.225015E+007
  2055.13        717949.       0.240434E+011   5097.63       0.503151E+007  0.224077E+007
  2102.56        717949.       0.243160E+011   5093.67       0.502363E+007  0.223137E+007
  2150.00        717949.       0.245886E+011   5089.70       0.501574E+007  0.222196E+007
  300.000        735897.       0.165187E+011   5246.11       0.536025E+007  0.257282E+007
  347.436        735897.       0.166741E+011   5244.04       0.535596E+007  0.256778E+007
  394.872        735897.       0.168508E+011   5241.67       0.535109E+007  0.256204E+007
  442.308        735897.       0.170445E+011   5239.07       0.534574E+007  0.255575E+007
  489.744        735897.       0.172518E+011   5236.29       0.534001E+007  0.254902E+007
  537.179        735897.       0.174699E+011   5233.36       0.533398E+007  0.254193E+007
  584.615        735897.       0.176966E+011   5230.31       0.532770E+007  0.253454E+007
  632.051        735897.       0.179305E+011   5227.15       0.532122E+007  0.252692E+007
  679.487        735897.       0.181701E+011   5223.91       0.531456E+007  0.251909E+007
  726.923        735897.       0.184146E+011   5220.60       0.530777E+007  0.251110E+007
  774.359        735897.       0.186630E+011   5217.23       0.530086E+007  0.250297E+007
  821.795        735897.       0.189148E+011   5213.81       0.529385E+007  0.249472E+007
  869.231        735897.       0.191694E+011   5210.34       0.528676E+007  0.248636E+007
  916.667        735897.       0.194264E+011   5206.84       0.527959E+007  0.247791E+007
  964.103        735897.       0.196855E+011   5203.29       0.527235E+007  0.246938E+007
  1011.54        735897.       0.199464E+011   5199.72       0.526505E+007  0.246077E+007
  1058.97        735897.       0.202088E+011   5196.12       0.525770E+007  0.245211E+007
  1106.41        735897.       0.204725E+011   5192.49       0.525031E+007  0.244338E+007
  1153.85        735897.       0.207373E+011   5188.84       0.524287E+007  0.243460E+007
  1201.28        735897.       0.210032E+011   5185.17       0.523540E+007  0.242578E+007
  1248.72        735897.       0.212699E+011   5181.48       0.522790E+007  0.241691E+007
  1296.15        735897.       0.215374E+011   5177.77       0.522036E+007  0.240800E+007
  1343.59        735897.       0.218056E+011   5174.04       0.521279E+007  0.239905E+007
  1391.03        735897.       0.220744E+011   5170.30       0.520520E+007  0.239007E+007
  1438.46        735897.       0.223437E+011   5166.54       0.519759E+007  0.238105E+007
  1485.90        735897.       0.226134E+011   5162.77       0.518994E+007  0.237201E+007
  1533.33        735897.       0.228836E+011   5158.98       0.518229E+007  0.236293E+007
  1580.77        735897.       0.231541E+011   5155.18       0.517461E+007  0.235383E+007
  1628.21        735897.       0.234249E+011   5151.36       0.516691E+007  0.234470E+007
  1675.64        735897.       0.236959E+011   5147.54       0.515920E+007  0.233554E+007
  1723.08        735897.       0.239672E+011   5143.70       0.515146E+007  0.232636E+007
  1770.51        735897.       0.242388E+011   5139.85       0.514372E+007  0.231716E+007
  1817.95        735897.       0.245105E+011   5135.99       0.513595E+007  0.230793E+007
  1865.38        735897.       0.247823E+011   5132.12       0.512817E+007  0.229869E+007
  1912.82        735897.       0.250543E+011   5128.24       0.512038E+007  0.228942E+007
  1960.26        735897.       0.253263E+011   5124.35       0.511256E+007  0.228013E+007
  2007.69        735897.       0.255985E+011   5120.45       0.510475E+007  0.227082E+007
  2055.13        735897.       0.258707E+011   5116.54       0.509692E+007  0.226149E+007
  2102.56        735897.       0.261430E+011   5112.62       0.508907E+007  0.225214E+007
  2150.00        735897.       0.264153E+011   5108.68       0.508122E+007  0.224277E+007
  300.000        753846.       0.183677E+011   5263.66       0.542439E+007  0.259169E+007
  347.436        753846.       0.185223E+011   5261.61       0.542013E+007  0.258670E+007
  394.872        753846.       0.186982E+011   5259.27       0.541529E+007  0.258101E+007
  442.308        753846.       0.188912E+011   5256.70       0.540997E+007  0.257476E+007
  489.744        753846.       0.190978E+011   5253.95       0.540428E+007  0.256807E+007
  537.179        753846.       0.193152E+011   5251.04       0.539828E+007  0.256102E+007
  584.615        753846.       0.195414E+011   5248.02       0.539203E+007  0.255368E+007
  632.051        753846.       0.197747E+011   5244.89       0.538558E+007  0.254610E+007
  679.487        753846.       0.200138E+011   5241.68       0.537896E+007  0.253832E+007
  726.923        753846.       0.202578E+011   5238.41       0.537220E+007  0.253038E+007
  774.359        753846.       0.205057E+011   5235.07       0.536532E+007  0.252229E+007
  821.795        753846.       0.207571E+011   5231.67       0.535834E+007  0.251408E+007
  869.231        753846.       0.210113E+011   5228.24       0.535127E+007  0.250576E+007
  916.667        753846.       0.212679E+011   5224.76       0.534412E+007  0.249736E+007
  964.103        753846.       0.215266E+011   5221.25       0.533692E+007  0.248887E+007
  1011.54        753846.       0.217871E+011   5217.71       0.532965E+007  0.248031E+007
  1058.97        753846.       0.220491E+011   5214.14       0.532233E+007  0.247169E+007
  1106.41        753846.       0.223124E+011   5210.54       0.531496E+007  0.246300E+007
  1153.85        753846.       0.225769E+011   5206.93       0.530756E+007  0.245427E+007
  1201.28        753846.       0.228424E+011   5203.29       0.530012E+007  0.244549E+007
  1248.72        753846.       0.231088E+011   5199.63       0.529264E+007  0.243666E+007
  1296.15        753846.       0.233760E+011   5195.95       0.528513E+007  0.242780E+007
  1343.59        753846.       0.236438E+011   5192.25       0.527760E+007  0.241890E+007
  1391.03        753846.       0.239123E+011   5188.54       0.527003E+007  0.240996E+007
  1438.46        753846.       0.241813E+011   5184.82       0.526245E+007  0.240099E+007
  1485.90        753846.       0.244507E+011   5181.08       0.525484E+007  0.239199E+007
  1533.33        753846.       0.247205E+011   5177.32       0.524721E+007  0.238296E+007
  1580.77        753846.       0.249907E+011   5173.56       0.523956E+007  0.237390E+007
  1628.21        753846.       0.252612E+011   5169.78       0.523189E+007  0.236481E+007
  1675.64        753846.       0.255320E+011   5165.99       0.522420E+007  0.235570E+007
  1723.08        753846.       0.258030E+011   5162.18       0.521650E+007  0.234657E+007
  1770.51        753846.       0.260742E+011   5158.37       0.520879E+007  0.233741E+007
  1817.95        753846.       0.263455E+011   5154.54       0.520105E+007  0.232824E+007
  1865.38        753846.       0.266171E+011   5150.71       0.519330E+007  0.231904E+007
  1912.82        753846.       0.268887E+011   5146.86       0.518554E+007  0.230981E+007
  1960.26        753846.       0.271605E+011   5143.00       0.517777E+007  0.230057E+007
  2007.69        753846.       0.274324E+011   5139.14       0.516997E+007  0.229131E+007
  2055.13        753846.       0.277043E+011   5135.26       0.516218E+007  0.228203E+007
  2102.56        753846.       0.279763E+011   5131.38       0.515436E+007  0.227273E+007
  2150.00        753846.       0.282483E+011   5127.48       0.514654E+007  0.226341E+007
  300.000        771795.       0.202222E+011   5281.05       0.548840E+007  0.261043E+007
  347.436        771795.       0.203759E+011   5279.03       0.548419E+007  0.260547E+007
  394.872        771795.       0.205511E+011   5276.71       0.547937E+007  0.259983E+007
  442.308        771795.       0.207434E+011   5274.17       0.547409E+007  0.259363E+007
  489.744        771795.       0.209493E+011   5271.45       0.546842E+007  0.258698E+007
  537.179        771795.       0.211661E+011   5268.57       0.546245E+007  0.257998E+007
  584.615        771795.       0.213917E+011   5265.58       0.545624E+007  0.257268E+007
  632.051        771795.       0.216245E+011   5262.48       0.544981E+007  0.256515E+007
  679.487        771795.       0.218631E+011   5259.30       0.544322E+007  0.255741E+007
  726.923        771795.       0.221066E+011   5256.05       0.543649E+007  0.254951E+007
  774.359        771795.       0.223541E+011   5252.74       0.542964E+007  0.254146E+007
  821.795        771795.       0.226050E+011   5249.38       0.542269E+007  0.253330E+007
  869.231        771795.       0.228588E+011   5245.98       0.541565E+007  0.252502E+007
  916.667        771795.       0.231150E+011   5242.53       0.540854E+007  0.251666E+007
  964.103        771795.       0.233733E+011   5239.05       0.540135E+007  0.250821E+007
  1011.54        771795.       0.236335E+011   5235.54       0.539412E+007  0.249970E+007
  1058.97        771795.       0.238951E+011   5232.00       0.538682E+007  0.249111E+007
  1106.41        771795.       0.241581E+011   5228.44       0.537949E+007  0.248248E+007
  1153.85        771795.       0.244223E+011   5224.85       0.537211E+007  0.247378E+007
  1201.28        771795.       0.246875E+011   5221.24       0.536470E+007  0.246505E+007
  1248.72        771795.       0.249535E+011   5217.61       0.535725E+007  0.245626E+007
  1296.15        771795.       0.252204E+011   5213.97       0.534977E+007  0.244744E+007
  1343.59        771795.       0.254879E+011   5210.30       0.534226E+007  0.243858E+007
  1391.03        771795.       0.257560E+011   5206.62       0.533473E+007  0.242969E+007
  1438.46        771795.       0.260247E+011   5202.93       0.532717E+007  0.242076E+007
  1485.90        771795.       0.262938E+011   5199.22       0.531959E+007  0.241181E+007
  1533.33        771795.       0.265634E+011   5195.50       0.531199E+007  0.240282E+007
  1580.77        771795.       0.268332E+011   5191.77       0.530437E+007  0.239381E+007
  1628.21        771795.       0.271034E+011   5188.02       0.529673E+007  0.238477E+007
  1675.64        771795.       0.273739E+011   5184.26       0.528907E+007  0.237570E+007
  1723.08        771795.       0.276446E+011   5180.49       0.528140E+007  0.236661E+007
  1770.51        771795.       0.279155E+011   5176.71       0.527371E+007  0.235750E+007
  1817.95        771795.       0.281866E+011   5172.92       0.526601E+007  0.234837E+007
  1865.38        771795.       0.284579E+011   5169.12       0.525829E+007  0.233922E+007
  1912.82        771795.       0.287292E+011   5165.30       0.525056E+007  0.233004E+007
  1960.26        771795.       0.290007E+011   5161.48       0.524282E+007  0.232085E+007
  2007.69        771795.       0.292723E+011   5157.65       0.523506E+007  0.231163E+007
  2055.13        771795.       0.295439E+011   5153.81       0.522729E+007  0.230240E+007
  2102.56        771795.       0.298156E+011   5149.96       0.521950E+007  0.229314E+007
  2150.00        771795.       0.300874E+011   5146.10       0.521171E+007  0.228387E+007
  300.000        789744.       0.220820E+011   5298.30       0.555231E+007  0.262903E+007
  347.436        789744.       0.222350E+011   5296.30       0.554812E+007  0.262412E+007
  394.872        789744.       0.224094E+011   5294.01       0.554334E+007  0.261851E+007
  442.308        789744.       0.226010E+011   5291.50       0.553809E+007  0.261236E+007
  489.744        789744.       0.228063E+011   5288.80       0.553245E+007  0.260576E+007
  537.179        789744.       0.230225E+011   5285.95       0.552651E+007  0.259879E+007
  584.615        789744.       0.232475E+011   5282.99       0.552032E+007  0.259154E+007
  632.051        789744.       0.234798E+011   5279.92       0.551393E+007  0.258405E+007
  679.487        789744.       0.237179E+011   5276.77       0.550737E+007  0.257636E+007
  726.923        789744.       0.239609E+011   5273.55       0.550067E+007  0.256849E+007
  774.359        789744.       0.242080E+011   5270.27       0.549384E+007  0.256049E+007
  821.795        789744.       0.244585E+011   5266.94       0.548692E+007  0.255237E+007
  869.231        789744.       0.247119E+011   5263.56       0.547991E+007  0.254414E+007
  916.667        789744.       0.249677E+011   5260.14       0.547282E+007  0.253581E+007
  964.103        789744.       0.252257E+011   5256.69       0.546567E+007  0.252741E+007
  1011.54        789744.       0.254855E+011   5253.21       0.545846E+007  0.251893E+007
  1058.97        789744.       0.257468E+011   5249.70       0.545119E+007  0.251039E+007
  1106.41        789744.       0.260094E+011   5246.17       0.544388E+007  0.250180E+007
